Field (Oe) Voltage (V) Current (A) Resistance (Ohm) -1502.50507
1.9927300E+3 -1.2005100E+0 -2.4131100E-3 4.9749493E+2
1.9051200E+3 -1.2005200E+0 -2.4158800E-3 4.9692866E+2
1.8138600E+3 -1.2005200E+0 -2.4154700E-3 4.9701300E+2
1.7229600E+3 -1.2005200E+0 -2.4145800E-3 4.9719620E+2
1.6290100E+3 -1.2005300E+0 -2.4140400E-3 4.9731156E+2
1.5341300E+3 -1.2005300E+0 -2.4132800E-3 4.9746818E+2
1.4365800E+3 -1.2005400E+0 -2.4125300E-3 4.9762697E+2
1.3403600E+3 -1.2005100E+0 -2.4113700E-3 4.9785392E+2
1.2437800E+3 -1.2005400E+0 -2.4101600E-3 4.9811631E+2
1.1449300E+3 -1.2005300E+0 -2.4087000E-3 4.9841408E+2
1.0475600E+3 -1.2005200E+0 -2.4066600E-3 4.9883241E+2
9.4752000E+2 -1.2005200E+0 -2.4040900E-3 4.9936566E+2
8.4759000E+2 -1.2005100E+0 -2.4001800E-3 5.0017499E+2
7.4928000E+2 -1.2005100E+0 -2.3942500E-3 5.0141380E+2
6.4875000E+2 -1.2005000E+0 -2.3843200E-3 5.0349785E+2
5.4825000E+2 -1.2005100E+0 -2.3690100E-3 5.0675599E+2
4.9776000E+2 -1.2005100E+0 -2.3595800E-3 5.0878122E+2
4.4754000E+2 -1.2005100E+0 -2.3490000E-3 5.1107280E+2
3.9714000E+2 -1.2005200E+0 -2.3368200E-3 5.1374090E+2
3.4683000E+2 -1.2005100E+0 -2.3229500E-3 5.1680406E+2
2.9649000E+2 -1.2005200E+0 -2.3064700E-3 5.2050103E+2
2.4396000E+2 -1.2005200E+0 -2.2868800E-3 5.2495977E+2
1.9367700E+2 -1.2005200E+0 -2.2639800E-3 5.3026970E+2
1.4332700E+2 -1.2005300E+0 -2.2364200E-3 5.3680883E+2
9.3197000E+1 -1.2005200E+0 -2.2044000E-3 5.4460171E+2
8.2350000E+1 -1.2005100E+0 -2.1974500E-3 5.4631960E+2
7.2188000E+1 -1.2005300E+0 -2.1904000E-3 5.4808711E+2
6.1885000E+1 -1.2005200E+0 -2.1836200E-3 5.4978430E+2
5.3616000E+1 -1.2005200E+0 -2.1780600E-3 5.5118775E+2
4.3370000E+1 -1.2005100E+0 -2.1712000E-3 5.5292465E+2
3.3073000E+1 -1.2005200E+0 -2.1644500E-3 5.5465361E+2
3.0866000E+1 -1.2005300E+0 -2.1631100E-3 5.5500183E+2
2.8783000E+1 -1.2005300E+0 -2.1616700E-3 5.5537154E+2
2.6731000E+1 -1.2005300E+0 -2.1606900E-3 5.5562344E+2
2.4689000E+1 -1.2004900E+0 -2.1592500E-3 5.5597545E+2
2.2673000E+1 -1.2005100E+0 -2.1576800E-3 5.5638927E+2
2.0573000E+1 -1.2005000E+0 -2.1569800E-3 5.5656520E+2
1.8507000E+1 -1.2005200E+0 -2.1558600E-3 5.5686362E+2
1.6476700E+1 -1.2005200E+0 -2.1550300E-3 5.5707809E+2
1.4412800E+1 -1.2005200E+0 -2.1542000E-3 5.5729273E+2
1.2354600E+1 -1.2005100E+0 -2.1533700E-3 5.5750289E+2
1.0328400E+1 -1.2005100E+0 -2.1526000E-3 5.5770231E+2
8.2441000E+0 -1.2005100E+0 -2.1512400E-3 5.5805489E+2
6.2267000E+0 -1.2005200E+0 -2.1504000E-3 5.5827753E+2
4.1399000E+0 -1.2005100E+0 -2.1491700E-3 5.5859239E+2
2.0541000E+0 -1.2005100E+0 -2.1481900E-3 5.5884722E+2
-3.7060000E-2 -1.2005300E+0 -2.1474800E-3 5.5904129E+2
-2.0826900E+0 -1.2005300E+0 -2.1461000E-3 5.5940077E+2
-4.1930000E+0 -1.2005200E+0 -2.1449800E-3 5.5968820E+2
-6.2552000E+0 -1.2005200E+0 -2.1424200E-3 5.6035698E+2
-8.3028000E+0 -1.2005200E+0 -2.1407400E-3 5.6079673E+2
